t (s),V (mV)
0,22.194
2.041,22.1425
4.081,22.0827
6.122,22.0259
8.163,21.9684
10.203,21.908
12.244,21.8441
14.285,21.7789
16.325,21.7132
17.89,21.6663
19.931,21.6022
21.972,21.539
25.038,21.4479
27.079,21.388
29.119,21.3271
31.16,21.268
33.201,21.2078
35.242,21.1425
37.282,21.0821
39.323,21.0215
40.888,20.9763
42.929,20.918
44.969,20.8587
48.036,20.7749
50.076,20.7177
52.117,20.6628
54.158,20.6303
56.198,20.5788
58.239,20.5271
60.28,20.474
62.32,20.4211
63.885,20.3835
65.926,20.3331
67.966,20.2827
71.033,20.2043
73.073,20.1537
75.114,20.1044
77.155,20.0557
79.195,20.0073
81.236,19.9604
83.277,19.911
85.318,19.8639
86.882,19.8297
88.923,19.7835
90.964,19.7367
94.03,19.6682
96.071,19.6225
98.111,19.5763
100.152,19.5314
102.193,19.4886
104.233,19.444
106.274,19.3984
107.362,19.3798
108.926,19.3456
110.966,19.3027
113.007,19.2232
115.048,19.178
118.114,19.1114
120.155,19.0683
122.195,19.0256
124.236,18.9813
126.276,18.9392
128.317,18.8981
129.882,18.8677
131.923,18.8268
133.963,18.7871
136.004,18.7482
138.045,18.7082
141.111,18.6469
143.152,18.6073
145.192,18.5673
147.233,18.5274
149.274,18.4873
150.362,18.4658
151.926,18.4365
153.966,18.3951
156.007,18.353
158.048,18.2799
160.088,18.242
162.129,18.2027
165.195,18.1428
167.236,18.1041
169.277,18.0663
171.318,18.0278
172.882,17.9972
174.923,17.9596
176.964,17.9239
179.004,17.889
181.045,17.8532
183.085,17.8163
185.126,17.78
188.193,17.7286
190.233,17.6929
192.274,17.6585
193.362,17.6422
194.926,17.6123
196.966,17.5768
199.007,17.5414
201.048,17.5076
203.088,17.4727
205.129,17.4384
207.17,17.4049
209.21,17.37
212.277,17.3196
214.317,17.2863
215.882,17.2621
217.923,17.2286
219.963,17.195
222.004,17.1611
224.045,17.127
226.085,17.0933
228.126,17.0605
230.167,17.0263
232.207,16.9932
235.274,16.9425
236.366,16.9274
237.925,16.9039
239.966,16.8695
242.006,16.8357
244.047,16.8006
246.088,16.7662
248.128,16.7326
250.169,16.6987
252.209,16.6657
254.25,16.6322
256.29,16.6
258.881,16.5639
260.921,16.5307
262.962,16.5013
265.002,16.4689
267.043,16.4375
269.083,16.4048
271.124,16.3718
273.164,16.3406
275.205,16.304
277.245,16.2761
279.286,16.2443
281.876,16.2075
283.917,16.1772
285.957,16.149
287.998,16.1166
290.038,16.0875
292.079,16.0577
294.12,16.0268
296.16,15.9963
298.201,15.9663
300.241,15.936
302.282,15.9053
304.872,15.8684
306.913,15.8396
308.954,15.811
310.994,15.7818
313.035,15.7525
315.076,15.7231
317.116,15.6941
319.157,15.6637
321.198,15.6351
323.238,15.606
325.279,15.5757
327.869,15.5342
329.91,15.5064
331.951,15.478
333.991,15.4488
336.032,15.4206
338.073,15.3913
340.113,15.3635
342.154,15.3349
344.195,15.3052
346.235,15.277
348.276,15.2493
350.866,15.2082
352.907,15.1786
354.948,15.1488
356.989,15.1203
359.029,15.0909
361.07,15.0624
363.111,15.0325
365.151,15.0069
367.192,14.9779
369.232,14.9502
371.273,14.9216
373.864,14.885
375.904,14.8573
377.945,14.8287
379.986,14.8007
382.026,14.7723
384.067,14.7444
386.107,14.7155
388.148,14.6859
390.189,14.6615
392.229,14.6339
394.27,14.6067
397.34,14.5684
398.901,14.5486
400.941,14.5198
402.982,14.4842
405.022,14.4652
407.063,14.4389
409.103,14.4118
411.144,14.3835
413.184,14.3563
415.225,14.3245
417.266,14.3009
420.336,14.2605
421.896,14.2415
423.937,14.2141
425.978,14.1879
428.018,14.1616
430.059,14.1365
432.099,14.1095
434.14,14.0827
436.18,14.0558
438.221,14.0289
440.261,14.0031
443.327,13.9626
444.892,13.9467
446.933,13.9197
448.973,13.8941
451.014,13.8683
453.054,13.8435
455.095,13.8173
457.135,13.7926
459.176,13.7665
461.216,13.7402
463.257,13.7134
466.323,13.6714
467.888,13.6527
469.928,13.6283
471.969,13.6025
474.009,13.5769
476.05,13.5524
478.09,13.5259
480.131,13.5017
482.171,13.4751
484.212,13.4496
486.252,13.4245
489.319,13.3844
490.883,13.3636
492.924,13.3387
494.964,13.3121
497.005,13.2864
499.045,13.2616
501.086,13.2369
503.126,13.2123
505.167,13.187
507.207,13.1384
509.248,13.1446
511.362,13.1237
512.925,13.1043
514.966,13.0805
517.006,13.0572
519.047,13.0332
521.087,13.0102
523.128,12.9866
525.169,12.9624
527.209,12.9385
529.25,12.9142
531.29,12.8898
533.335,12.8652
535.921,12.8368
537.962,12.8136
540.002,12.7904
542.043,12.763
544.084,12.744
546.124,12.7204
548.165,12.6956
550.205,12.6713
552.246,12.6473
554.286,12.6479
556.327,12.6129
558.917,12.5829
560.958,12.5587
562.998,12.4928
565.039,12.4837
567.08,12.4604
569.12,12.4358
571.161,12.4134
573.201,12.3894
575.242,12.3663
577.283,12.3403
579.323,12.3167
581.914,12.287
583.954,12.2639
585.995,12.2402
588.036,12.2183
590.076,12.1957
592.117,12.1747
594.157,12.1516
596.198,12.1299
598.239,12.1079
600.279,12.0856
602.32,12.0633
604.91,12.0333
606.951,12.0104
608.991,11.987
611.032,11.9638
613.073,11.941
615.113,11.9167
617.154,11.8945
619.195,11.872
621.235,11.8502
623.276,11.8293
625.316,11.807
627.907,11.778
629.947,11.7547
631.988,11.7322
634.029,11.7102
636.069,11.6878
638.11,11.6646
640.15,11.6421
642.191,11.6204
644.232,11.5994
646.272,11.5786
647.365,11.5704
649.95,11.537
651.99,11.5159
654.031,11.4951
656.072,11.474
658.112,11.4535
660.153,11.4329
662.193,11.4111
664.234,11.3919
666.275,11.3724
667.363,11.3571
668.927,11.3434
670.967,11.3232
673.008,11.303
676.074,11.2709
678.115,11.2493
680.155,11.2291
682.196,11.2095
684.237,11.1872
686.277,11.1656
688.318,11.1453
689.883,11.1322
691.923,11.1115
693.964,11.0913
696.004,11.071
699.071,11.0359
701.111,11.0152
703.152,10.9939
705.192,10.9718
707.233,10.9506
709.274,10.9318
710.362,10.925
711.925,10.9081
713.966,10.8872
716.006,10.8677
718.047,10.8472
720.087,10.8276
723.154,10.7999
725.194,10.7811
727.235,10.7617
729.275,10.7427
730.364,10.7333
731.927,10.7163
733.968,10.6974
736.008,10.6771
738.049,10.657
740.089,10.6371
742.129,10.6187
744.169,10.5997
747.235,10.5726
749.274,10.5536
750.365,10.5462
751.923,10.5324
753.963,10.514
756.002,10.4951
758.042,10.4754
760.081,10.4565
762.121,10.4367
764.16,10.4168
766.199,10.3952
768.239,10.375
770.355,10.3514
771.914,10.3378
773.953,10.3177
775.993,10.2969
778.032,10.2771
780.071,10.2571
782.111,10.2377
784.15,10.2183
786.19,10.1982
788.229,10.179
790.268,10.1601
791.359,10.1491
793.943,10.1245
795.983,10.1061
798.022,10.088
800.062,10.0678
802.101,10.049
804.14,10.0307
806.18,10.0119
808.22,9.9944
810.261,9.981
811.352,9.9748
812.912,9.9618
814.953,9.9447
816.993,9.9265
820.059,9.8974
822.1,9.88
